voltage,wavelength
0,0
0.1,-0.0001455
0.2,-0.0002905
0.3,-0.0004405
0.4,-0.0005915
0.5,-0.0007545
0.6,-0.0009145
0.7,-0.0010675
0.8,-0.0012205
0.9,-0.0013765
1,-0.0015375
1.1,-0.0017005
1.2,-0.0018615
1.3,-0.0020255
1.4,-0.0021865
1.5,-0.0023385
1.6,-0.0024875
1.7,-0.0026485
1.8,-0.0028105
1.9,-0.0029725
2,-0.0031375
2.1,-0.0033095
2.2,-0.0034865
2.3,-0.0036545
2.4,-0.0038235
2.5,-0.0039955
2.6,-0.0041795
2.7,-0.0043645
2.8,-0.0045505
2.9,-0.0047375
3,-0.0049205
3.1,-0.0050905
3.2,-0.0052745
3.3,-0.0054635
3.4,-0.0056585
3.5,-0.0058535
3.6,-0.0060505
3.7,-0.0062465
3.8,-0.0064315
3.9,-0.0066115
4,-0.0067995
4.1,-0.0069925
4.2,-0.0071965
4.3,-0.0073935
4.4,-0.0075975
4.5,-0.0077895
4.6,-0.0079795
4.7,-0.0081775
4.8,-0.0083855
4.9,-0.0085975
5,-0.0088085
5.1,-0.0090245
5.2,-0.0092245
5.3,-0.0094165
5.4,-0.0096115
5.5,-0.0098175
5.6,-0.0100295
5.7,-0.0102495
5.8,-0.0104665
5.9,-0.0106645
6,-0.0108555
6.1,-0.0110555
6.2,-0.0112645
6.3,-0.0114745
6.4,-0.0116895
6.5,-0.0118995
6.6,-0.0120935
6.7,-0.0122825
6.8,-0.0124725
6.9,-0.0126725
7,-0.0128705
7.1,-0.0130765
7.2,-0.0132755
7.3,-0.0134625
7.4,-0.0136405
7.5,-0.0138295
7.6,-0.0140175
7.7,-0.0142035
7.8,-0.0143945
7.9,-0.0145835
8,-0.0147685
8.1,-0.0149575
8.2,-0.0151485
8.3,-0.0153405
8.4,-0.0155285
8.5,-0.0157225
8.6,-0.0159175
8.7,-0.0161075
8.8,-0.0162995
8.9,-0.0164905
9,-0.0166745
9.1,-0.0168565
9.2,-0.0170415
9.3,-0.0172315
9.4,-0.0174235
9.5,-0.0176165
9.6,-0.0178115
9.7,-0.0179995
9.8,-0.0181845
9.9,-0.0183665
10,-0.0185675
10.1,-0.0187585
10.2,-0.0189565
10.3,-0.0191405
10.4,-0.0193165
10.5,-0.0194905
10.6,-0.0196655
10.7,-0.0198565
10.8,-0.0200555
10.9,-0.0202585
11,-0.0204445
11.1,-0.0206285
11.2,-0.0208135
11.3,-0.0210045
11.4,-0.0212055
11.5,-0.0214165
11.6,-0.0216095
11.7,-0.0217955
11.8,-0.0219775
11.9,-0.0221705
12,-0.0223675
12.1,-0.0226035
12.2,-0.0228095
12.3,-0.0229985
12.4,-0.0231715
12.5,-0.0233655
12.6,-0.0235655
12.7,-0.0237725
12.8,-0.0239935
12.9,-0.0241975
13,-0.0243875
13.1,-0.0245925
13.2,-0.0248035
13.3,-0.0250285
13.4,-0.0252545
13.5,-0.0254685
13.6,-0.0256665
13.7,-0.0258755
13.8,-0.0260945
13.9,-0.0263275
14,-0.0265655
14.1,-0.0268025
14.2,-0.0270175
14.3,-0.0272405
14.4,-0.0274695
14.5,-0.0277065
14.6,-0.0279425
14.7,-0.0281645
14.8,-0.0283555
14.9,-0.0285565
15,-0.0287645
15.1,-0.0289915
15.2,-0.0292195
15.3,-0.0294415
15.4,-0.0296435
15.5,-0.0298445
15.6,-0.0300545
15.7,-0.0302825
15.8,-0.0305085
15.9,-0.0307135
16,-0.0308975
16.1,-0.0310905
16.2,-0.0313225
16.3,-0.0315625
16.4,-0.0318005
16.5,-0.0320195
16.6,-0.0322205
16.7,-0.0324265
16.8,-0.0326475
16.9,-0.0328855
17,-0.0331215
17.1,-0.0333415
17.2,-0.0335385
17.3,-0.0337455
17.4,-0.0339755
17.5,-0.0342145
17.6,-0.0344495
17.7,-0.0346715
17.8,-0.0348875
17.9,-0.0350945
18,-0.0353215
18.1,-0.0355515
18.2,-0.0357885
18.3,-0.0360085
18.4,-0.0362165
18.5,-0.0364275
18.6,-0.0366585
18.7,-0.0369065
18.8,-0.0371515
18.9,-0.0373825
19,-0.0376155
19.1,-0.0378465
19.2,-0.0380905
19.3,-0.0383365
19.4,-0.0385775
19.5,-0.0387975
19.6,-0.0390125
19.7,-0.0392345
19.8,-0.0394665
19.9,-0.0397085
20,-0.0399465
20.1,-0.0401775
20.2,-0.0403965
20.3,-0.0406215
20.4,-0.0408555
20.5,-0.0410895
20.6,-0.0413165
20.7,-0.0415415
20.8,-0.0417555
20.9,-0.0419755
21,-0.0422125
21.1,-0.0424575
21.2,-0.0426985
21.3,-0.0429335
21.4,-0.0431625
21.5,-0.0433915
21.6,-0.0436415
21.7,-0.0438925
21.8,-0.0441375
21.9,-0.0443705
22,-0.0445945
22.1,-0.0448255
22.2,-0.0450845
22.3,-0.0453295
22.4,-0.0455785
22.5,-0.0458125
22.6,-0.0460365
22.7,-0.0462795
22.8,-0.0465235
22.9,-0.0467785
23,-0.0470245
23.1,-0.0472555
23.2,-0.0474765
23.3,-0.0477245
23.4,-0.0479835
23.5,-0.0482355
23.6,-0.0484775
23.7,-0.0486995
23.8,-0.0489305
23.9,-0.0491875
24,-0.0494435
24.1,-0.0496985
24.2,-0.0499235
24.3,-0.0501395
24.4,-0.0503675
24.5,-0.0506205
24.6,-0.0508745
24.7,-0.0511155
24.8,-0.0513485
24.9,-0.0515795
25,-0.0518605
25.1,-0.0520905
25.2,-0.0522745
25.3,-0.0524695
25.4,-0.0526785
25.5,-0.0528945
25.6,-0.0531285
25.7,-0.0533745
25.8,-0.0536195
25.9,-0.0538435
26,-0.0540505
26.1,-0.0542625
26.2,-0.0545005
26.3,-0.0547395
26.4,-0.0549705
26.5,-0.0551805
26.6,-0.0553815
26.7,-0.0555875
26.8,-0.0558245
26.9,-0.0560765
27,-0.0563135
27.1,-0.0565295
27.2,-0.0567465
27.3,-0.0569715
27.4,-0.0572255
27.5,-0.0574785
27.6,-0.0577075
27.7,-0.0579275
27.8,-0.0581395
27.9,-0.0583755
28,-0.0586515
28.1,-0.0589165
28.2,-0.0591605
28.3,-0.0593975
28.4,-0.0596295
28.5,-0.0599035
28.6,-0.0601635
28.7,-0.0604025
28.8,-0.0606215
28.9,-0.0608315
29,-0.0610615
29.1,-0.0613225
29.2,-0.0615795
29.3,-0.0618175
29.4,-0.0620515
29.5,-0.0622885
29.6,-0.0625405
29.7,-0.0628065
29.8,-0.0630525
29.9,-0.0632905
30,-0.0635095
30.1,-0.0637465
30.2,-0.0640055
30.3,-0.0642725
30.4,-0.0645335
30.5,-0.0647805
30.6,-0.0650285
30.7,-0.0652835
30.8,-0.0655515
30.9,-0.0658105
31,-0.0660645
31.1,-0.0662995
31.2,-0.0665425
31.3,-0.0667995
31.4,-0.0670715
31.5,-0.0673325
31.6,-0.0675915
31.7,-0.0678405
31.8,-0.0681025
31.9,-0.0683695
32,-0.0686385
32.1,-0.0688955
32.2,-0.0691345
32.3,-0.0693825
32.4,-0.0696455
32.5,-0.0699105
32.6,-0.0701685
32.7,-0.0704175
32.8,-0.0706565
32.9,-0.0709085
33,-0.0711585
33.1,-0.0714045
33.2,-0.0716415
33.3,-0.0718785
33.4,-0.0721065
33.5,-0.0723525
33.6,-0.0725825
33.7,-0.0728225
33.8,-0.0730555
33.9,-0.0732905
34,-0.0735185
34.1,-0.0737595
34.2,-0.0740115
34.3,-0.0742595
34.4,-0.0745055
34.5,-0.0747325
34.6,-0.0749595
34.7,-0.0751985
34.8,-0.0754515
34.9,-0.0757015
35,-0.0759455
35.1,-0.0761785
35.2,-0.0764375
35.3,-0.0766945
35.4,-0.0769535
35.5,-0.0772005
35.6,-0.0774335
35.7,-0.0776645
35.8,-0.0779145
35.9,-0.0781745
36,-0.0784315
36.1,-0.0786805
36.2,-0.0789245
36.3,-0.0791895
36.4,-0.0794675
36.5,-0.0797485
36.6,-0.0800135
36.7,-0.0802615
36.8,-0.0805175
36.9,-0.0807865
37,-0.0810595
37.1,-0.0813245
37.2,-0.0815775
37.3,-0.0818335
37.4,-0.0820945
37.5,-0.0823715
37.6,-0.0826355
37.7,-0.0828905
37.8,-0.0831295
37.9,-0.0833735
38,-0.0836185
38.1,-0.0838715
38.2,-0.0841075
38.3,-0.0843475
38.4,-0.0845845
38.5,-0.0848405
38.6,-0.0851075
38.7,-0.0853635
38.8,-0.0856165
38.9,-0.0858615
39,-0.0861125
39.1,-0.0863645
39.2,-0.0866175
39.3,-0.0868615
39.4,-0.0871075
39.5,-0.0873535
39.6,-0.0876135
39.7,-0.0878705
39.8,-0.0881355
39.9,-0.0883885
40,-0.0886395
40.1,-0.0888945
40.2,-0.0891515
40.3,-0.0894095
40.4,-0.0896685
40.5,-0.0899215
40.6,-0.0901865
40.7,-0.0904505
40.8,-0.0907265
40.9,-0.0909995
41,-0.0912585
41.1,-0.0915285
41.2,-0.0917975
41.3,-0.0920725
41.4,-0.0923395
41.5,-0.0926005
41.6,-0.0928625
41.7,-0.0931265
41.8,-0.0933925
41.9,-0.0936515
42,-0.0938955
42.1,-0.0941455
42.2,-0.0943945
42.3,-0.0946565
42.4,-0.0949085
42.5,-0.0951615
42.6,-0.0954055
42.7,-0.0956725
42.8,-0.0959405
42.9,-0.0962005
43,-0.0964385
43.1,-0.0966855
43.2,-0.0969375
43.3,-0.0972035
43.4,-0.0974625
43.5,-0.0977135
43.6,-0.0979615
43.7,-0.0982035
43.8,-0.0984725
43.9,-0.0987345
44,-0.0989935
44.1,-0.0992365
44.2,-0.0994755
44.3,-0.0997355
44.4,-0.0999975
44.5,-0.1002535
44.6,-0.1005045
44.7,-0.1007405
44.8,-0.1010075
44.9,-0.1012835
45,-0.1015615
45.1,-0.1018305
45.2,-0.1020815
45.3,-0.1023565
45.4,-0.1026455
45.5,-0.1029315
45.6,-0.1032005
45.7,-0.1034605
45.8,-0.1037235
45.9,-0.1040055
46,-0.1042855
46.1,-0.1045565
46.2,-0.1048035
46.3,-0.1050655
46.4,-0.1053465
46.5,-0.1056545
46.6,-0.1059355
46.7,-0.1062005
46.8,-0.1064655
46.9,-0.1067365
47,-0.1070045
47.1,-0.1072885
47.2,-0.1075345
47.3,-0.1077855
47.4,-0.1080725
47.5,-0.1083485
47.6,-0.1086275
47.7,-0.1088695
47.8,-0.1091195
47.9,-0.1093885
48,-0.1096655
48.1,-0.1099275
48.2,-0.1101545
48.3,-0.1103685
48.4,-0.1106275
48.5,-0.1108945
48.6,-0.1111595
48.7,-0.1113955
48.8,-0.1116165
48.9,-0.1118775
49,-0.1121615
49.1,-0.1124345
49.2,-0.1126745
49.3,-0.1128955
49.4,-0.1131395
49.5,-0.1134265
49.6,-0.1137045
49.7,-0.1139615
49.8,-0.1141945
49.9,-0.1144555
50,-0.1147455
50.1,-0.1150295
50.2,-0.1152855
50.3,-0.1155275
50.4,-0.1157675
50.5,-0.1160415
50.6,-0.1163165
50.7,-0.1165745
50.8,-0.1168205
50.9,-0.1170805
51,-0.1173645
51.1,-0.1176635
51.2,-0.1179365
51.3,-0.1181945
51.4,-0.1184645
51.5,-0.1187415
51.6,-0.1190265
51.7,-0.1192895
51.8,-0.1195385
51.9,-0.1197965
52,-0.1200715
52.1,-0.1203475
52.2,-0.1206155
52.3,-0.1208705
52.4,-0.1211305
52.5,-0.1213955
52.6,-0.1216695
52.7,-0.1219275
52.8,-0.1221815
52.9,-0.1224465
53,-0.1227095
53.1,-0.1229975
53.2,-0.1232675
53.3,-0.1235375
53.4,-0.1238085
53.5,-0.1240895
53.6,-0.1243875
53.7,-0.1246785
53.8,-0.1249485
53.9,-0.1252365
54,-0.1255265
54.1,-0.1258345
54.2,-0.1261225
54.3,-0.1263945
54.4,-0.1266735
54.5,-0.1269635
54.6,-0.1272585
54.7,-0.1275465
54.8,-0.1278305
54.9,-0.1281175
55,-0.1284145
55.1,-0.1287125
55.2,-0.1290105
55.3,-0.1292885
55.4,-0.1295745
55.5,-0.1298695
55.6,-0.1301655
55.7,-0.1304485
55.8,-0.1307225
55.9,-0.1309945
56,-0.1312815
56.1,-0.1315665
56.2,-0.1318345
56.3,-0.1321085
56.4,-0.1323845
56.5,-0.1326395
56.6,-0.1328985
56.7,-0.1331615
56.8,-0.1334175
56.9,-0.1336635
57,-0.1339125
57.1,-0.1341735
57.2,-0.1344385
57.3,-0.1347015
57.4,-0.1349535
57.5,-0.1352015
57.6,-0.1354525
57.7,-0.1357235
57.8,-0.1359755
57.9,-0.1362225
58,-0.1364545
58.1,-0.1367135
58.2,-0.1369785
58.3,-0.1372425
58.4,-0.1374875
58.5,-0.1377195
58.6,-0.1379645
58.7,-0.1382265
58.8,-0.1384735
58.9,-0.1387095
59,-0.1389305
59.1,-0.1391705
59.2,-0.1394485
59.3,-0.1397155
59.4,-0.1399585
59.5,-0.1401955
59.6,-0.1404385
59.7,-0.1407105
59.8,-0.1409795
59.9,-0.1412285
60,-0.1414735
60.1,-0.1417205
60.2,-0.1419935
60.3,-0.1422615
60.4,-0.1425025
60.5,-0.1427545
60.6,-0.1430015
60.7,-0.1432595
60.8,-0.1435375
60.9,-0.1438055
61,-0.1440675
61.1,-0.1443365
61.2,-0.1446195
61.3,-0.1449115
61.4,-0.1452005
61.5,-0.1454705
61.6,-0.1457455
61.7,-0.1460335
61.8,-0.1463415
61.9,-0.1466405
62,-0.1469205
62.1,-0.1472025
62.2,-0.1474985
62.3,-0.1477995
62.4,-0.1480815
62.5,-0.1483415
62.6,-0.1485905
62.7,-0.1488705
62.8,-0.1491585
62.9,-0.1494315
63,-0.1496845
63.1,-0.1499395
63.2,-0.1501945
63.3,-0.1504535
63.4,-0.1507175
63.5,-0.1509845
63.6,-0.1512695
63.7,-0.1515515
63.8,-0.1518205
63.9,-0.1520745
64,-0.1523345
64.1,-0.1526155
64.2,-0.1528915
64.3,-0.1531625
64.4,-0.1534275
64.5,-0.1536965
64.6,-0.1539775
64.7,-0.1542635
64.8,-0.1545365
64.9,-0.1547965
65,-0.1550585
65.1,-0.1553445
65.2,-0.1556245
65.3,-0.1558955
65.4,-0.1561665
65.5,-0.1564415
65.6,-0.1567335
65.7,-0.1570375
65.8,-0.1573275
65.9,-0.1576015
66,-0.1578715
66.1,-0.1581635
66.2,-0.1584435
66.3,-0.1587205
66.4,-0.1589715
66.5,-0.1592335
66.6,-0.1595225
66.7,-0.1598065
66.8,-0.1600905
66.9,-0.1603495
67,-0.1606115
67.1,-0.1608875
67.2,-0.1611755
67.3,-0.1614485
67.4,-0.1617015
67.5,-0.1619635
67.6,-0.1622525
67.7,-0.1625505
67.8,-0.1628385
67.9,-0.1630955
68,-0.1633615
68.1,-0.1636455
68.2,-0.1639435
68.3,-0.1642195
68.4,-0.1644795
68.5,-0.1647555
68.6,-0.1650545
68.7,-0.1653455
68.8,-0.1656195
68.9,-0.1658795
69,-0.1661455
69.1,-0.1664385
69.2,-0.1667225
69.3,-0.1670115
69.4,-0.1672715
69.5,-0.1675555
69.6,-0.1678435
69.7,-0.1681185
69.8,-0.1683825
69.9,-0.1686315
70,-0.1689005
70.1,-0.1691965
70.2,-0.1694645
70.3,-0.1697355
70.4,-0.1699915
70.5,-0.1702765
70.6,-0.1705585
70.7,-0.1708365
70.8,-0.1710935
70.9,-0.1713465
71,-0.1716215
71.1,-0.1719035
71.2,-0.1721745
71.3,-0.1724225
71.4,-0.1726745
71.5,-0.1729435
71.6,-0.1732315
71.7,-0.1734895
71.8,-0.1737545
71.9,-0.1740075
72,-0.1742575
72.1,-0.1745025
72.2,-0.1747545
72.3,-0.1749855
72.4,-0.1752245
72.5,-0.1754895
72.6,-0.1757685
72.7,-0.1760305
72.8,-0.1762875
72.9,-0.1765345
73,-0.1768055
73.1,-0.1770905
73.2,-0.1773485
73.3,-0.1776015
73.4,-0.1778485
73.5,-0.1781335
73.6,-0.1784305
73.7,-0.1787155
73.8,-0.1789855
73.9,-0.1792425
74,-0.1795235
74.1,-0.1798065
74.2,-0.1800725
74.3,-0.1803155
74.4,-0.1805545
74.5,-0.1808305
74.6,-0.1811175
74.7,-0.1814035
74.8,-0.1816635
74.9,-0.1819215
75,-0.1822005
75.1,-0.1824865
75.2,-0.1827555
75.3,-0.1830125
75.4,-0.1832685
75.5,-0.1835685
75.6,-0.1838615
75.7,-0.1841585
75.8,-0.1844195
75.9,-0.1846765
76,-0.1849695
76.1,-0.1852605
76.2,-0.1855445
76.3,-0.1857945
76.4,-0.1860665
76.5,-0.1863735
76.6,-0.1866705
76.7,-0.1869615
76.8,-0.1872235
76.9,-0.1875155
77,-0.1878175
77.1,-0.1880965
77.2,-0.1883795
77.3,-0.1886505
77.4,-0.1889295
77.5,-0.1892185
77.6,-0.1895085
77.7,-0.1897945
77.8,-0.1900645
77.9,-0.1903425
78,-0.1905995
78.1,-0.1908615
78.2,-0.1911235
78.3,-0.1913675
78.4,-0.1916265
78.5,-0.1918885
78.6,-0.1921575
78.7,-0.1924115
78.8,-0.1926705
78.9,-0.1929315
79,-0.1931715
79.1,-0.1934115
79.2,-0.1936345
79.3,-0.1938725
79.4,-0.1941245
79.5,-0.1943975
79.6,-0.1946645
79.7,-0.1949185
79.8,-0.1951665
79.9,-0.1954265
80,-0.1957125
80.1,-0.1959935
80.2,-0.1962595
80.3,-0.1964985
80.4,-0.1967485
80.5,-0.1970325
80.6,-0.1973045
80.7,-0.1975525
80.8,-0.1978015
80.9,-0.1980755
81,-0.1983905
81.1,-0.1986845
81.2,-0.1989445
81.3,-0.1992075
81.4,-0.1994835
81.5,-0.1998095
81.6,-0.2000805
81.7,-0.2003265
81.8,-0.2005865
81.9,-0.2008755
82,-0.2011845
82.1,-0.2014725
82.2,-0.2017235
82.3,-0.2019695
82.4,-0.2022375
82.5,-0.2025395
82.6,-0.2027955
82.7,-0.2030275
82.8,-0.2032705
82.9,-0.2035465
83,-0.2038465
83.1,-0.2041145
83.2,-0.2043585
83.3,-0.2045995
83.4,-0.2048655
83.5,-0.2051545
83.6,-0.2054205
83.7,-0.2056575
83.8,-0.2058985
83.9,-0.2061755
84,-0.2064735
84.1,-0.2067545
84.2,-0.2069975
84.3,-0.2072375
84.4,-0.2075125
84.5,-0.2078015
84.6,-0.2080745
84.7,-0.2083145
84.8,-0.2085625
84.9,-0.2088535
85,-0.2091455
85.1,-0.2094355
85.2,-0.2096685
85.3,-0.2099505
85.4,-0.2102395
85.5,-0.2105455
85.6,-0.2108335
85.7,-0.2110875
85.8,-0.2113485
85.9,-0.2116445
86,-0.2119445
86.1,-0.2122145
86.2,-0.2124555
86.3,-0.2127195
86.4,-0.2129925
86.5,-0.2132805
86.6,-0.2135315
86.7,-0.2137705
86.8,-0.2140225
86.9,-0.2143095
87,-0.2145805
87.1,-0.2148215
87.2,-0.2150675
87.3,-0.2153265
87.4,-0.2156075
87.5,-0.2158875
87.6,-0.2161355
87.7,-0.2163765
87.8,-0.2166425
87.9,-0.2169305
88,-0.2171945
88.1,-0.2174305
88.2,-0.2176705
88.3,-0.2179375
88.4,-0.2182205
88.5,-0.2184815
88.6,-0.2187245
88.7,-0.2189705
88.8,-0.2192445
88.9,-0.2195415
89,-0.2198135
89.1,-0.2200465
89.2,-0.2202935
89.3,-0.2205705
89.4,-0.2208695
89.5,-0.2211505
89.6,-0.2214095
89.7,-0.2216835
89.8,-0.2219855
89.9,-0.2223025
90,-0.2225945
90.1,-0.2228575
90.2,-0.2231185
90.3,-0.2234095
90.4,-0.2237105
90.5,-0.2239905
90.6,-0.2242485
90.7,-0.2245085
90.8,-0.2247965
90.9,-0.2251125
91,-0.2254015
91.1,-0.2256735
91.2,-0.2259295
91.3,-0.2262105
91.4,-0.2264995
91.5,-0.2267675
91.6,-0.2270155
91.7,-0.2272585
91.8,-0.2275345
91.9,-0.2278225
92,-0.2281005
92.1,-0.2283475
92.2,-0.2285895
92.3,-0.2288525
92.4,-0.2291145
92.5,-0.2293595
92.6,-0.2295725
92.7,-0.2297995
92.8,-0.2300575
92.9,-0.2303255
93,-0.2305875
93.1,-0.2308215
93.2,-0.2310485
93.3,-0.2313215
93.4,-0.2315985
93.5,-0.2318615
93.6,-0.2320935
93.7,-0.2323185
93.8,-0.2325895
93.9,-0.2328805
94,-0.2331685
94.1,-0.2334205
94.2,-0.2336665
94.3,-0.2339495
94.4,-0.2342575
94.5,-0.2345325
94.6,-0.2347835
94.7,-0.2350185
94.8,-0.2352955
94.9,-0.2355975
95,-0.2358935
95.1,-0.2361615
95.2,-0.2364115
95.3,-0.2367075
95.4,-0.2370055
95.5,-0.2372985
95.6,-0.2375585
95.7,-0.2378115
95.8,-0.2380915
95.9,-0.2383855
96,-0.2386745
96.1,-0.2389275
96.2,-0.2391735
96.3,-0.2394295
96.4,-0.2396905
96.5,-0.2399455
96.6,-0.2401785
96.7,-0.2404065
96.8,-0.2406515
96.9,-0.2409115
97,-0.2411665
97.1,-0.2414045
97.2,-0.2416315
97.3,-0.2418775
97.4,-0.2421325
97.5,-0.2423975
97.6,-0.2426415
97.7,-0.2428815
97.8,-0.2431305
97.9,-0.2434185
98,-0.2437105
98.1,-0.2439845
98.2,-0.2442615
98.3,-0.2445455
98.4,-0.2448485
98.5,-0.2451535
98.6,-0.2454325
98.7,-0.2456955
98.8,-0.2459735
98.9,-0.2462915
99,-0.2466185
99.1,-0.2469235
99.2,-0.2472115
99.3,-0.2475305
99.4,-0.2478795
99.5,-0.2482095
99.6,-0.2485125
99.7,-0.2488095
99.8,-0.2491285
99.9,-0.2494615
100,-0.2497805
100.1,-0.2500685
100.2,-0.2503525
100.3,-0.2506515
100.4,-0.2509485
100.5,-0.2512245
100.6,-0.2514785
100.7,-0.2517275
100.8,-0.2519855
100.9,-0.2522425
101,-0.2524795
101.1,-0.2526985
101.2,-0.2529215
101.3,-0.2531675
101.4,-0.2534145
101.5,-0.2536455
101.6,-0.2538625
101.7,-0.2540875
101.8,-0.2543245
101.9,-0.2545695
102,-0.2547945
102.1,-0.2550025
102.2,-0.2552175
102.3,-0.2554525
102.4,-0.2557025
102.5,-0.2559445
102.6,-0.2561665
102.7,-0.2563885
102.8,-0.2566235
102.9,-0.2568615
103,-0.2570865
103.1,-0.2573105
103.2,-0.2575325
103.3,-0.2577785
103.4,-0.2580335
103.5,-0.2582655
103.6,-0.2584985
103.7,-0.2587385
103.8,-0.2589915
103.9,-0.2592585
104,-0.2595115
104.1,-0.2597505
104.2,-0.2600165
104.3,-0.2602935
104.4,-0.2605845
104.5,-0.2608595
104.6,-0.2611155
104.7,-0.2613765
104.8,-0.2616505
104.9,-0.2619445
105,-0.2622445
105.1,-0.2625245
105.2,-0.2628285
105.3,-0.2631405
105.4,-0.2634715
105.5,-0.2638045
105.6,-0.2641615
105.7,-0.2644965
105.8,-0.2648155
105.9,-0.2651535
106,-0.2655225
106.1,-0.2658575
106.2,-0.2661725
106.3,-0.2664665
106.4,-0.2667705
106.5,-0.2670725
106.6,-0.2673725
106.7,-0.2676565
106.8,-0.2679165
106.9,-0.2681675
107,-0.2684255
107.1,-0.2686775
107.2,-0.2689175
107.3,-0.2691385
107.4,-0.2693885
107.5,-0.2696715
107.6,-0.2699475
107.7,-0.2702025
107.8,-0.2704315
107.9,-0.2706955
108,-0.2709955
108.1,-0.2712805
108.2,-0.2715315
108.3,-0.2717575
108.4,-0.2720125
108.5,-0.2723035
108.6,-0.2725955
108.7,-0.2728565
108.8,-0.2730965
108.9,-0.2733555
109,-0.2736525
109.1,-0.2739385
109.2,-0.2741935
109.3,-0.2744235
109.4,-0.2746635
109.5,-0.2749455
109.6,-0.2752385
109.7,-0.2755045
109.8,-0.2757485
109.9,-0.2760025
110,-0.2763135
110.1,-0.2766195
110.2,-0.2769025
110.3,-0.2771465
110.4,-0.2773975
110.5,-0.2776915
110.6,-0.2779875
110.7,-0.2782595
110.8,-0.2785155
110.9,-0.2787655
111,-0.2790555
111.1,-0.2793485
111.2,-0.2796245
111.3,-0.2798735
111.4,-0.2801105
111.5,-0.2803805
111.6,-0.2806595
111.7,-0.2809345
111.8,-0.2811895
111.9,-0.2814335
112,-0.2817105
112.1,-0.2820005
112.2,-0.2822805
112.3,-0.2825445
112.4,-0.2827895
112.5,-0.2830595
112.6,-0.2833425
112.7,-0.2836215
112.8,-0.2838815
112.9,-0.2841265
113,-0.2843935
113.1,-0.2846805
113.2,-0.2849625
113.3,-0.2852285
113.4,-0.2854805
113.5,-0.2857475
113.6,-0.2860305
113.7,-0.2863125
113.8,-0.2865755
113.9,-0.2868235
114,-0.2870895
114.1,-0.2873665
114.2,-0.2876365
114.3,-0.2878935
114.4,-0.2881395
114.5,-0.2883965
114.6,-0.2886715
114.7,-0.2889485
114.8,-0.2892085
114.9,-0.2894585
115,-0.2897135
115.1,-0.2899875
115.2,-0.2902395
115.3,-0.2904825
115.4,-0.2907225
115.5,-0.2909685
115.6,-0.2912365
115.7,-0.2915105
115.8,-0.2917735
115.9,-0.2920305
116,-0.2922835
116.1,-0.2925415
116.2,-0.2927985
116.3,-0.2930465
116.4,-0.2932915
116.5,-0.2935325
116.6,-0.2937675
116.7,-0.2940275
116.8,-0.2942815
116.9,-0.2945305
117,-0.2947715
117.1,-0.2950075
117.2,-0.2952595
117.3,-0.2955115
117.4,-0.2957785
117.5,-0.2960295
117.6,-0.2962615
117.7,-0.2965075
117.8,-0.2967725
117.9,-0.2970345
118,-0.2972995
118.1,-0.2975455
118.2,-0.2978015
118.3,-0.2980795
118.4,-0.2983675
118.5,-0.2986515
118.6,-0.2989045
118.7,-0.2991485
118.8,-0.2994095
118.9,-0.2996715
119,-0.2999315
119.1,-0.3001775
119.2,-0.3004275
119.3,-0.3006815
119.4,-0.3009215
119.5,-0.3011475
119.6,-0.3013985
119.7,-0.3016095
119.8,-0.3018255
119.9,-0.3020905
120,-0.3023545
120.1,-0.3026085
120.2,-0.3028545
120.3,-0.3031085
120.4,-0.3033925
120.5,-0.3036855
120.6,-0.3039515
120.7,-0.3042035
120.8,-0.3044515
120.9,-0.3047225
121,-0.3050015
121.1,-0.3052675
121.2,-0.3055245
121.3,-0.3057845
121.4,-0.3060605
121.5,-0.3063485
121.6,-0.3066235
121.7,-0.3068905
121.8,-0.3071545
121.9,-0.3074235
122,-0.3076995
122.1,-0.3079745
122.2,-0.3082395
122.3,-0.3085015
122.4,-0.3087605
122.5,-0.3090335
122.6,-0.3093095
122.7,-0.3095795
122.8,-0.3098455
122.9,-0.3101035
123,-0.3103735
123.1,-0.3106475
123.2,-0.3108915
123.3,-0.3111385
123.4,-0.3113725
123.5,-0.3116245
123.6,-0.3118835
123.7,-0.3121335
123.8,-0.3123815
123.9,-0.3126205
124,-0.3128835
124.1,-0.3131585
124.2,-0.3134115
124.3,-0.3136525
124.4,-0.3138905
124.5,-0.3141385
124.6,-0.3144155
124.7,-0.3146735
124.8,-0.3149275
124.9,-0.3151765
125,-0.3154245
125.1,-0.3157085
125.2,-0.3159755
125.3,-0.3162135
125.4,-0.3164525
125.5,-0.3166925
125.6,-0.3169625
125.7,-0.3172275
125.8,-0.3174765
125.9,-0.3177195
126,-0.3179695
126.1,-0.3182435
126.2,-0.3185325
126.3,-0.3187875
126.4,-0.3190335
126.5,-0.3192875
126.6,-0.3195575
126.7,-0.3198455
126.8,-0.3201125
126.9,-0.3203605
127,-0.3205995
127.1,-0.3208605
127.2,-0.3211415
127.3,-0.3214125
127.4,-0.3216605
127.5,-0.3218975
127.6,-0.3221465
127.7,-0.3224205
127.8,-0.3226955
127.9,-0.3229445
128,-0.3231725
128.1,-0.3234045
128.2,-0.3236585
128.3,-0.3239355
128.4,-0.3241925
128.5,-0.3244295
128.6,-0.3246575
128.7,-0.3248985
128.8,-0.3251635
128.9,-0.3254355
129,-0.3256845
129.1,-0.3259235
129.2,-0.3261625
129.3,-0.3264245
129.4,-0.3267085
129.5,-0.3269765
129.6,-0.3272135
129.7,-0.3274445
129.8,-0.3276905
129.9,-0.3279585
130,-0.3282235
130.1,-0.3284775
130.2,-0.3287165
130.3,-0.3289695
130.4,-0.3292335
130.5,-0.3295205
130.6,-0.3297895
130.7,-0.3300395
130.8,-0.3302885
130.9,-0.3305455
131,-0.3308355
131.1,-0.3311135
131.2,-0.3313725
131.3,-0.3316185
131.4,-0.3318615
131.5,-0.3321315
131.6,-0.3324015
131.7,-0.3326595
131.8,-0.3328955
131.9,-0.3331275
132,-0.3333685
132.1,-0.3336215
132.2,-0.3338705
132.3,-0.3341045
132.4,-0.3343315
132.5,-0.3345575
132.6,-0.3348055
132.7,-0.3350585
132.8,-0.3352995
132.9,-0.3355265
133,-0.3357575
133.1,-0.3359915
133.2,-0.3362535
133.3,-0.3365125
133.4,-0.3367555
133.5,-0.3369975
133.6,-0.3372335
133.7,-0.3374855
133.8,-0.3377495
133.9,-0.3379915
134,-0.3382335
134.1,-0.3384665
134.2,-0.3387065
134.3,-0.3389735
134.4,-0.3392375
134.5,-0.3394945
134.6,-0.3397425
134.7,-0.3399945
134.8,-0.3402615
134.9,-0.3405335
135,-0.3407905
135.1,-0.3410545
135.2,-0.3413115
135.3,-0.3415815
135.4,-0.3418745
135.5,-0.3421585
135.6,-0.3424285
135.7,-0.3426965
135.8,-0.3429685
135.9,-0.3432415
136,-0.3434985
136.1,-0.3437505
136.2,-0.3440035
136.3,-0.3442565
136.4,-0.3445125
136.5,-0.3447655
136.6,-0.3450145
136.7,-0.3452645
136.8,-0.3455085
136.9,-0.3457695
137,-0.3460165
137.1,-0.3462585
137.2,-0.3464935
137.3,-0.3467425
137.4,-0.3469865
137.5,-0.3472375
137.6,-0.3474805
137.7,-0.3477275
137.8,-0.3479775
137.9,-0.3482285
138,-0.3484815
138.1,-0.3487235
138.2,-0.3489595
138.3,-0.3492045
138.4,-0.3494585
138.5,-0.3497015
138.6,-0.3499455
138.7,-0.3501845
138.8,-0.3504315
138.9,-0.3506925
139,-0.3509585
139.1,-0.3512195
139.2,-0.3514765
139.3,-0.3517215
139.4,-0.3519805
139.5,-0.3522495
139.6,-0.3525095
139.7,-0.3527495
139.8,-0.3529905
139.9,-0.3532875
